Median size = 11 Samples

Multiple Feedback Bandpass Filter
4th Order
Texas Instruments TL072
f0 = 40.0 [kHz]
K = 5.0
Q = 10.0

1st Stage
C1 = 1.10 [nF]
C2 = 1.10 [nF]
R1 = 0.7193 [kOhm]
R2 = 0.2417 [Ohm]
R3 = 71.87 [kOhm]

2nd Stage
C1 = 1.10 [nF]
C2 = 1.10 [nF]
R1 = 0.7184 [kOhm]
R2 = 0.2410 [Ohm]
R3 = 71.97 [kOhm]

Freq [Hz]	v1P [mV]	v2P [mV]	Normalized Phase
1000.00	100.00	599.00	0.98
1009.25	100.00	592.00	1.00
1018.59	100.00	599.00	1.00
1028.02	100.00	586.00	0.94
1037.53	100.00	586.00	0.99
1047.13	100.00	573.00	0.95
1056.82	100.00	573.00	0.95
1066.60	100.00	560.00	0.95
1076.47	100.00	586.00	0.89
1086.43	100.00	586.00	0.94
1096.48	100.00	567.00	1.00
1106.62	100.00	567.00	1.00
1116.86	100.00	599.00	0.95
1127.20	100.00	580.00	0.97
1137.63	100.00	650.00	1.00
1148.15	100.00	547.00	0.93
1158.78	100.00	586.00	0.81
1169.50	100.00	592.00	0.96
1180.32	100.00	599.00	1.00
1191.24	100.00	638.00	1.00
1202.26	100.00	547.00	0.95
1213.39	100.00	586.00	1.00
1224.62	100.00	638.00	0.97
1235.95	100.00	586.00	0.95
1247.38	100.00	592.00	0.99
1258.93	100.00	631.00	1.00
1270.57	100.00	592.00	1.00
1282.33	100.00	625.00	1.00
1294.20	100.00	573.00	0.94
1306.17	100.00	573.00	1.00
1318.26	100.00	580.00	1.00
1330.46	100.00	605.00	0.97
1342.77	100.00	573.00	0.83
1355.19	100.00	586.00	1.00
1367.73	100.00	592.00	0.95
1380.39	100.00	592.00	0.94
1393.16	100.00	560.00	0.99
1406.05	100.00	586.00	0.96
1419.06	100.00	573.00	0.96
1432.19	100.00	580.00	0.93
1445.44	100.00	573.00	0.96
1458.82	100.00	612.00	0.95
1472.31	100.00	567.00	0.96
1485.94	100.00	554.00	0.96
1499.69	100.00	567.00	0.96
1513.56	100.00	605.00	0.95
1527.57	100.00	586.00	0.98
1541.70	100.00	605.00	0.96
1555.97	100.00	560.00	1.00
1570.36	100.00	580.00	1.00
1584.89	100.00	605.00	0.94
1599.56	100.00	580.00	0.98
1614.36	100.00	586.00	1.00
1629.30	100.00	599.00	1.00
1644.37	100.00	592.00	1.00
1659.59	100.00	560.00	1.00
1674.94	100.00	586.00	0.99
1690.44	100.00	592.00	0.95
1706.08	100.00	599.00	0.91
1721.87	100.00	580.00	0.94
1737.80	100.00	586.00	1.00
1753.88	100.00	567.00	0.95
1770.11	100.00	586.00	0.90
1786.49	100.00	554.00	1.00
1803.02	100.00	592.00	1.00
1819.70	100.00	580.00	1.00
1836.54	100.00	586.00	1.00
1853.53	100.00	567.00	1.00
1870.68	100.00	573.00	1.00
1887.99	100.00	605.00	1.00
1905.46	100.00	612.00	0.96
1923.09	100.00	567.00	1.00
1940.89	100.00	599.00	1.00
1958.85	100.00	599.00	0.93
1976.97	100.00	554.00	1.00
1995.26	100.00	573.00	0.98
2013.73	100.00	605.00	0.98
2032.36	100.00	612.00	1.00
2051.16	100.00	599.00	1.00
2070.14	100.00	586.00	0.95
2089.30	100.00	580.00	0.99
2108.63	100.00	592.00	0.95
2128.14	100.00	567.00	0.97
2147.83	100.00	605.00	0.98
2167.71	100.00	560.00	1.00
2187.76	100.00	599.00	0.95
2208.01	100.00	592.00	1.00
2228.44	100.00	580.00	0.93
2249.06	100.00	554.00	1.00
2269.87	100.00	567.00	1.00
2290.87	100.00	599.00	0.97
2312.07	100.00	586.00	0.96
2333.46	100.00	573.00	1.00
2355.05	100.00	547.00	0.95
2376.84	100.00	560.00	0.93
2398.84	100.00	573.00	1.00
2421.03	100.00	631.00	0.97
2443.43	100.00	554.00	0.98
2466.04	100.00	586.00	0.97
2488.86	100.00	573.00	0.99
2511.89	100.00	541.00	1.00
2535.13	100.00	586.00	1.00
2558.59	100.00	541.00	0.98
2582.26	100.00	573.00	0.98
2606.16	100.00	592.00	1.00
2630.27	100.00	580.00	0.96
2654.61	100.00	580.00	0.99
2679.17	100.00	599.00	1.00
2703.96	100.00	592.00	0.98
2728.98	100.00	573.00	0.94
2754.23	100.00	560.00	1.00
2779.72	100.00	618.00	0.99
2805.44	100.00	573.00	1.00
2831.40	100.00	573.00	1.00
2857.60	100.00	560.00	1.00
2884.04	100.00	554.00	1.00
2910.72	100.00	599.00	0.98
2937.66	100.00	586.00	0.98
2964.84	100.00	612.00	0.99
2992.27	100.00	567.00	1.00
3019.96	100.00	618.00	0.98
3047.90	100.00	580.00	0.98
3076.10	100.00	573.00	0.99
3104.57	100.00	580.00	0.97
3133.29	100.00	586.00	0.99
3162.28	100.00	625.00	1.00
3191.54	100.00	605.00	1.00
3221.08	100.00	612.00	1.00
3250.88	100.00	573.00	0.98
3280.96	100.00	592.00	0.96
3311.32	100.00	586.00	0.99
3341.96	100.00	592.00	1.00
3372.88	100.00	618.00	0.97
3404.09	100.00	586.00	0.96
3435.59	100.00	580.00	1.00
3467.38	100.00	605.00	1.00
3499.46	100.00	612.00	1.00
3531.84	100.00	605.00	1.00
3564.52	100.00	618.00	1.00
3597.50	100.00	560.00	1.00
3630.79	100.00	612.00	0.98
3664.38	100.00	599.00	1.00
3698.29	100.00	592.00	1.00
3732.51	100.00	592.00	1.00
3767.05	100.00	580.00	1.00
3801.90	100.00	605.00	1.00
3837.08	100.00	586.00	1.00
3872.59	100.00	612.00	0.99
3908.42	100.00	586.00	1.00
3944.58	100.00	560.00	0.98
3981.08	100.00	586.00	1.00
4017.92	100.00	586.00	0.99
4055.10	100.00	618.00	1.00
4092.62	100.00	612.00	1.00
4130.49	100.00	580.00	1.00
4168.71	100.00	586.00	1.00
4207.28	100.00	605.00	1.00
4246.21	100.00	567.00	1.00
4285.50	100.00	586.00	0.99
4325.15	100.00	580.00	1.00
4365.17	100.00	580.00	1.00
4405.56	100.00	586.00	1.00
4446.33	100.00	567.00	1.00
4487.47	100.00	631.00	1.00
4528.99	100.00	560.00	1.00
4570.90	100.00	573.00	1.00
4613.19	100.00	605.00	1.00
4655.87	100.00	592.00	1.00
4698.96	100.00	618.00	1.00
4742.43	100.00	599.00	1.00
4786.32	100.00	592.00	1.00
4830.60	100.00	612.00	1.00
4875.30	100.00	605.00	1.00
4920.41	100.00	644.00	1.00
4965.94	100.00	580.00	1.00
5011.89	100.00	605.00	1.00
5058.26	100.00	605.00	1.00
5105.07	100.00	573.00	1.00
5152.30	100.00	592.00	1.00
5199.98	100.00	586.00	1.00
5248.09	100.00	612.00	1.00
5296.65	100.00	599.00	1.00
5345.66	100.00	580.00	1.00
5395.12	100.00	605.00	1.00
5445.04	100.00	592.00	1.00
5495.43	100.00	586.00	1.00
5546.28	100.00	612.00	1.00
5597.60	100.00	612.00	1.00
5649.39	100.00	573.00	1.00
5701.66	100.00	580.00	1.00
5754.42	100.00	592.00	1.00
5807.66	100.00	573.00	1.00
5861.40	100.00	605.00	1.00
5915.64	100.00	599.00	1.00
5970.37	100.00	592.00	1.00
6025.62	100.00	605.00	1.00
6081.37	100.00	631.00	1.00
6137.64	100.00	612.00	1.00
6194.43	100.00	618.00	1.00
6251.75	100.00	625.00	1.00
6309.60	100.00	631.00	1.00
6367.98	100.00	605.00	1.00
6426.90	100.00	644.00	1.00
6486.37	100.00	573.00	1.00
6546.39	100.00	605.00	1.00
6606.96	100.00	631.00	1.00
6668.09	100.00	625.00	1.00
6729.79	100.00	618.00	1.00
6792.06	100.00	605.00	1.00
6854.91	100.00	638.00	1.00
6918.34	100.00	599.00	1.00
6982.35	100.00	612.00	1.00
7046.96	100.00	605.00	1.00
7112.16	100.00	657.00	1.00
7177.97	100.00	592.00	1.00
7244.39	100.00	625.00	1.00
7311.42	100.00	650.00	1.00
7379.07	100.00	599.00	1.00
7447.35	100.00	592.00	1.00
7516.26	100.00	650.00	1.00
7585.81	100.00	599.00	1.00
7656.00	100.00	650.00	1.00
7726.84	100.00	631.00	1.00
7798.33	100.00	676.00	1.00
7870.49	100.00	676.00	1.00
7943.31	100.00	638.00	1.00
8016.81	100.00	663.00	1.00
8090.99	100.00	676.00	1.00
8165.86	100.00	612.00	1.00
8241.41	100.00	644.00	1.00
8317.67	100.00	618.00	1.00
8394.63	100.00	618.00	1.00
8472.31	100.00	638.00	1.00
8550.70	100.00	625.00	1.00
8629.82	100.00	670.00	1.00
8709.67	100.00	663.00	1.00
8790.26	100.00	631.00	1.00
8871.60	100.00	650.00	1.00
8953.69	100.00	631.00	1.00
9036.53	100.00	618.00	1.00
9120.15	100.00	631.00	1.00
9204.54	100.00	721.00	1.00
9289.70	100.00	631.00	1.00
9375.66	100.00	663.00	1.00
9462.41	100.00	670.00	1.00
9549.97	100.00	670.00	1.00
9638.33	100.00	657.00	1.00
9727.52	100.00	676.00	1.00
9817.52	100.00	663.00	1.00
9908.37	100.00	657.00	1.00
10000.05	100.00	663.00	1.00
10092.58	100.00	670.00	1.00
10185.96	100.00	683.00	1.00
10280.21	100.00	683.00	1.00
10375.33	100.00	676.00	1.00
10471.34	100.00	696.00	1.00
10568.23	100.00	676.00	1.00
10666.01	100.00	689.00	1.00
10764.70	100.00	670.00	1.00
10864.31	100.00	715.00	1.00
10964.84	100.00	689.00	1.00
11066.29	100.00	721.00	1.00
11168.69	100.00	715.00	1.00
11272.03	100.00	696.00	1.00
11376.33	100.00	696.00	1.00
11481.59	100.00	676.00	1.00
11587.83	100.00	715.00	1.00
11695.05	100.00	721.00	1.00
11803.27	100.00	676.00	1.00
11912.48	100.00	721.00	1.00
12022.70	100.00	760.00	1.00
12133.95	100.00	696.00	1.00
12246.22	100.00	760.00	1.00
12359.54	100.00	786.00	1.00
12473.90	100.00	754.00	1.00
12589.32	100.00	728.00	1.00
12705.81	100.00	747.00	1.00
12823.37	100.00	773.00	1.00
12942.03	100.00	786.00	1.00
13061.78	100.00	792.00	1.00
13182.64	100.00	773.00	1.00
13304.61	100.00	799.00	1.00
13427.72	100.00	837.00	1.00
13551.96	100.00	760.00	1.00
13677.36	100.00	799.00	1.00
13803.92	100.00	786.00	1.00
13931.64	100.00	779.00	1.00
14060.55	100.00	786.00	1.00
14190.65	100.00	818.00	1.00
14321.96	100.00	870.00	1.00
14454.48	100.00	863.00	1.00
14588.22	100.00	831.00	1.00
14723.20	100.00	876.00	1.00
14859.44	100.00	883.00	1.00
14996.93	100.00	863.00	1.00
15135.70	100.00	915.00	1.00
15275.75	100.00	902.00	1.00
15417.09	100.00	895.00	1.00
15559.74	100.00	908.00	1.00
15703.72	100.00	883.00	1.00
15849.02	100.00	902.00	1.00
15995.67	100.00	928.00	1.00
16143.68	100.00	941.00	1.00
16293.05	100.00	953.00	1.00
16443.81	100.00	902.00	1.00
16595.96	100.00	941.00	1.00
16749.52	100.00	992.00	1.00
16904.51	100.00	992.00	1.00
17060.92	100.00	973.00	1.00
17218.79	100.00	992.00	1.00
17378.11	100.00	1031.00	1.00
17538.91	100.00	1076.00	1.00
17701.19	100.00	1082.00	1.00
17864.98	100.00	1115.00	1.00
18030.28	100.00	1108.00	1.00
18197.12	100.00	1076.00	1.00
18365.49	100.00	1121.00	1.00
18535.43	100.00	1140.00	1.00
18706.93	100.00	1173.00	1.00
18880.03	100.00	1147.00	1.00
19054.72	100.00	1211.00	1.00
19231.03	100.00	1185.00	1.00
19408.98	100.00	1095.00	1.00
19588.57	100.00	1057.00	1.00
19769.82	100.00	1121.00	1.00
19952.75	100.00	1153.00	1.00
20137.37	100.00	1205.00	1.00
20323.70	100.00	1237.00	1.00
20511.75	100.00	1308.00	1.00
20701.54	100.00	1327.00	1.00
20893.09	100.00	1321.00	1.00
21086.41	100.00	1359.00	1.00
21281.53	100.00	1392.00	1.00
21478.44	100.00	1463.00	1.00
21677.18	100.00	1450.00	1.00
21877.76	100.00	1482.00	1.00
22080.19	100.00	1540.00	1.00
22284.50	100.00	1546.00	1.00
22490.69	100.00	1604.00	1.00
22698.80	100.00	1643.00	1.00
22908.83	100.00	1675.00	1.00
23120.80	100.00	1714.00	1.00
23334.74	100.00	1708.00	1.00
23550.65	100.00	1772.00	1.00
23768.56	100.00	1862.00	1.00
23988.49	100.00	1901.00	1.00
24210.45	100.00	1933.00	1.00
24434.47	100.00	2036.00	1.00
24660.56	100.00	2056.00	1.00
24888.74	100.00	2101.00	1.00
25119.03	100.00	2204.00	1.00
25351.46	100.00	2236.00	1.00
25586.03	100.00	2300.00	1.00
25822.78	100.00	2365.00	1.00
26061.71	100.00	2404.00	1.00
26302.86	100.00	2462.00	1.00
26546.24	100.00	2526.00	1.00
26791.87	100.00	2610.00	1.00
27039.77	100.00	2642.00	1.00
27289.97	100.00	2739.00	1.00
27542.48	100.00	2771.00	1.00
27797.33	100.00	2823.00	1.00
28054.53	100.00	2868.00	1.00
28314.12	100.00	2906.00	1.00
28576.10	100.00	2958.00	1.00
28840.52	100.00	3003.00	1.00
29107.38	100.00	3055.00	1.00
29376.70	100.00	3093.00	1.00
29648.52	100.00	3158.00	1.00
29922.86	100.00	3190.00	1.00
30199.73	100.00	3235.00	1.00
30479.17	100.00	3274.00	1.00
30761.19	100.00	3293.00	1.00
31045.82	100.00	3293.00	1.00
31333.08	100.00	3293.00	1.00
31623.01	100.00	3293.00	1.00
31915.61	100.00	3293.00	1.00
32210.92	100.00	3293.00	1.00
32508.97	100.00	3293.00	1.00
32809.77	100.00	3293.00	1.00
33113.35	100.00	3293.00	0.86
33419.75	100.00	3293.00	0.72
33728.98	100.00	3293.00	0.60
34041.07	100.00	3293.00	0.50
34356.05	100.00	3293.00	0.40
34673.94	100.00	3293.00	0.31
34994.78	100.00	3293.00	0.22
35318.58	100.00	3293.00	0.12
35645.39	100.00	3293.00	0.04
35975.21	100.00	3293.00	0.05
36308.08	100.00	3293.00	0.15
36644.04	100.00	3293.00	0.24
36983.10	100.00	3293.00	0.33
37325.31	100.00	3293.00	0.43
37670.67	100.00	3293.00	0.52
38019.24	100.00	3293.00	0.62
38371.03	100.00	3293.00	0.71
38726.07	100.00	3293.00	0.79
39084.40	100.00	3293.00	0.88
39446.04	100.00	3293.00	0.95
39811.03	100.00	3293.00	1.00
40179.40	100.00	3293.00	1.00
40551.18	100.00	3293.00	1.00
40926.39	100.00	3293.00	1.00
41305.08	100.00	3293.00	1.00
41687.27	100.00	3293.00	1.00
42073.00	100.00	3293.00	1.00
42462.30	100.00	3293.00	1.00
42855.19	100.00	3293.00	1.00
43251.73	100.00	3293.00	1.00
43651.93	100.00	3293.00	1.00
44055.84	100.00	3293.00	1.00
44463.48	100.00	3293.00	1.00
44874.90	100.00	3293.00	1.00
45290.12	100.00	3293.00	1.00
45709.19	100.00	3293.00	1.00
46132.13	100.00	3293.00	1.00
46558.99	100.00	3293.00	1.00
46989.79	100.00	3293.00	1.00
47424.58	100.00	3293.00	1.00
47863.40	100.00	3293.00	1.00
48306.28	100.00	3261.00	1.00
48753.25	100.00	3216.00	1.00
49204.36	100.00	3196.00	1.00
49659.64	100.00	3151.00	1.00
50119.14	100.00	3087.00	1.00
50582.89	100.00	3048.00	1.00
51050.92	100.00	3029.00	1.00
51523.30	100.00	2977.00	1.00
52000.03	100.00	2919.00	1.00
52481.19	100.00	2881.00	1.00
52966.79	100.00	2810.00	1.00
53456.89	100.00	2758.00	1.00
53951.52	100.00	2713.00	1.00
54450.73	100.00	2603.00	1.00
54954.55	100.00	2591.00	1.00
55463.04	100.00	2487.00	1.00
55976.24	100.00	2449.00	1.00
56494.18	100.00	2365.00	1.00
57016.91	100.00	2313.00	1.00
57544.48	100.00	2191.00	1.00
58076.94	100.00	2139.00	1.00
58614.32	100.00	2114.00	1.00
59156.67	100.00	2017.00	1.00
59704.04	100.00	1972.00	1.00
60256.48	100.00	1920.00	1.00
60814.02	100.00	1888.00	1.00
61376.73	100.00	1824.00	1.00
61944.64	100.00	1753.00	1.00
62517.81	100.00	1733.00	1.00
63096.28	100.00	1656.00	1.00
63680.11	100.00	1611.00	1.00
64269.33	100.00	1572.00	1.00
64864.01	100.00	1514.00	1.00
65464.19	100.00	1514.00	1.00
66069.93	100.00	1527.00	1.00
66681.27	100.00	1443.00	1.00
67298.26	100.00	1405.00	1.00
67920.96	100.00	1443.00	1.00
68549.43	100.00	1379.00	1.00
69183.71	100.00	1347.00	1.00
69823.86	100.00	1327.00	1.00
70469.93	100.00	1276.00	1.00
71121.99	100.00	1224.00	1.00
71780.07	100.00	1205.00	1.00
72444.25	100.00	1173.00	1.00
73114.57	100.00	1185.00	1.00
73791.09	100.00	1153.00	1.00
74473.87	100.00	1095.00	1.00
75162.97	100.00	1057.00	1.00
75858.45	100.00	1069.00	1.00
76560.36	100.00	1050.00	1.00
77268.77	100.00	1057.00	1.00
77983.73	100.00	992.00	1.00
78705.31	100.00	979.00	1.00
79433.56	100.00	986.00	1.00
80168.55	100.00	966.00	1.00
80910.34	100.00	928.00	1.00
81659.00	100.00	953.00	1.00
82414.58	100.00	915.00	1.00
83177.16	100.00	941.00	1.00
83946.79	100.00	921.00	0.99
84723.54	100.00	883.00	0.98
85507.48	100.00	883.00	0.97
86298.67	100.00	895.00	0.96
87097.19	100.00	857.00	0.95
87903.09	100.00	915.00	0.94
88716.45	100.00	805.00	0.93
89537.33	100.00	876.00	0.93
90365.81	100.00	850.00	0.92
91201.96	100.00	876.00	0.92
92045.84	100.00	831.00	0.92
92897.53	100.00	786.00	0.90
93757.10	100.00	825.00	0.93
94624.63	100.00	844.00	0.92
95500.18	100.00	844.00	0.92
96383.84	100.00	773.00	0.93
97275.67	100.00	837.00	0.95
98175.75	100.00	760.00	0.92
99084.17	100.00	786.00	0.93
